SpectraSuite Data File
++++++++++++++++++++++++++++++++++++
Date: Fri Oct 31 12:44:52 PDT 2014
User: tbrown
Dark Spectrum Present: Yes
Reference Spectrum Present: Yes
Number of Sampled Component Spectra: 1
Spectrometers: JAZA2166
Integration Time (usec): 2200 (JAZA2166)
Spectra Averaged: 50 (JAZA2166)
Boxcar Smoothing: 0 (JAZA2166)
Correct for Electrical Dark: No (JAZA2166)
Strobe/Lamp Enabled: No (JAZA2166)
Correct for Detector Non-linearity: No (JAZA2166)
Correct for Stray Light: No (JAZA2166)
Number of Pixels in Processed Spectrum: 2048
>>>>>Begin Processed Spectral Data<<<<<
190.71	104.246
191.09	104.246
191.46	104.246
191.84	101.605
192.22	101.825
192.59	97.535
192.97	100.019
193.34	100.662
193.72	99.763
194.10	102.506
194.47	102.431
194.85	99.261
195.23	102.184
195.60	97.273
195.98	97.464
196.36	100.470
196.73	106.716
197.11	101.650
197.48	104.000
197.86	100.177
198.24	102.269
198.61	99.647
198.99	106.657
199.37	99.131
199.74	99.794
200.12	43.908
200.49	72.075
200.87	73.276
201.25	-38.857
201.62	203.448
202.00	348.485
202.37	100.000
202.75	11.811
203.12	407.595
203.50	426.923
203.88	114.599
204.25	-36.161
204.63	-22.581
205.00	184.706
205.38	258.929
205.75	71.515
206.13	-72.222
206.51	339.815
206.88	-205.660
207.26	-728.571
207.63	212.139
208.01	48.582
208.38	153.846
208.76	-69.091
209.14	728.125
209.51	-3.745
209.89	27.329
210.26	-106.757
210.64	15.957
211.01	-14.056
211.39	33.974
211.76	-96.491
212.14	19.786
212.51	-405.714
212.89	-4.545
213.26	20.404
213.64	67.000
214.01	73.134
214.39	80.929
214.76	63.060
215.14	191.822
215.51	74.342
215.89	-16.541
216.26	139.528
216.64	149.393
217.01	387.097
217.39	69.136
217.76	173.874
218.14	-122.222
218.51	56.960
218.89	118.123
219.26	-36.496
219.64	81.250
220.01	81.735
220.39	-5600.000
220.76	69.364
221.14	85.635
221.51	102.557
221.89	66.881
222.26	36.803
222.64	23.599
223.01	72.222
223.39	82.778
223.76	91.756
224.14	350.000
224.51	-9.253
224.88	-1.227
225.26	62.725
225.63	69.444
226.01	47.606
226.38	27.000
226.76	210.732
227.13	71.373
227.50	124.107
227.88	94.391
228.25	56.936
228.63	142.458
229.00	78.549
229.38	163.636
229.75	53.173
230.12	76.117
230.50	113.020
230.87	-750.000
231.25	177.206
231.62	188.462
231.99	60.706
232.37	53.565
232.74	73.276
233.12	104.222
233.49	65.076
233.86	77.313
234.24	116.514
234.61	138.281
234.99	71.749
235.36	48.214
235.73	75.984
236.11	76.598
236.48	44.070
236.86	60.882
237.23	63.714
237.60	30.735
237.98	147.619
238.35	49.052
238.72	61.995
239.10	63.648
239.47	92.368
239.84	79.181
240.22	81.835
240.59	47.091
240.96	83.628
241.34	103.020
241.71	71.991
242.08	81.272
242.46	120.820
242.83	130.337
243.20	118.099
243.58	99.442
243.95	108.439
244.32	108.086
244.70	106.568
245.07	124.886
245.44	75.536
245.82	54.512
246.19	107.451
246.56	141.775
246.94	121.103
247.31	76.471
247.68	110.762
248.05	98.496
248.43	81.447
248.80	63.279
249.17	84.124
249.55	96.782
249.92	108.786
250.29	101.435
250.67	121.146
251.04	91.517
251.41	142.075
251.78	70.692
252.16	72.561
252.53	156.661
252.90	104.047
253.27	110.567
253.65	75.139
254.02	67.687
254.39	134.633
254.76	102.552
255.14	71.543
255.51	115.101
255.88	66.182
256.25	100.625
256.63	112.567
257.00	76.570
257.37	71.080
257.74	79.126
258.12	101.103
258.49	63.480
258.86	73.638
259.23	76.016
259.60	74.947
259.98	97.439
260.35	65.897
260.72	86.560
261.09	114.865
261.47	97.017
261.84	107.759
262.21	81.031
262.58	163.200
262.95	129.284
263.32	109.808
263.70	108.160
264.07	108.426
264.44	95.082
264.81	97.205
265.18	115.094
265.56	126.302
265.93	94.169
266.30	115.486
266.67	81.148
267.04	88.907
267.41	75.950
267.79	103.372
268.16	96.848
268.53	106.685
268.90	98.541
269.27	88.722
269.64	94.355
270.02	95.107
270.39	84.216
270.76	105.277
271.13	94.884
271.50	103.131
271.87	96.785
272.24	92.514
272.61	107.586
272.99	92.552
273.36	95.956
273.73	82.460
274.10	92.719
274.47	95.516
274.84	94.610
275.21	107.488
275.58	88.375
275.96	96.097
276.33	96.081
276.70	91.217
277.07	90.714
277.44	101.061
277.81	98.282
278.18	108.599
278.55	106.693
278.92	119.729
279.29	100.598
279.66	86.374
280.04	108.029
280.41	107.701
280.78	84.758
281.15	111.315
281.52	95.113
281.89	99.459
282.26	99.378
282.63	88.140
283.00	81.864
283.37	97.706
283.74	102.153
284.11	97.446
284.48	105.212
284.85	89.970
285.22	113.969
285.59	101.141
285.96	105.463
286.33	94.609
286.70	90.916
287.07	103.951
287.44	111.138
287.81	95.442
288.19	102.654
288.56	100.467
288.93	102.405
289.30	106.397
289.67	102.061
290.04	96.541
290.41	104.284
290.78	93.063
291.15	96.911
291.52	96.065
291.89	108.534
292.26	105.741
292.63	93.173
292.99	88.195
293.36	89.785
293.73	94.907
294.10	105.089
294.47	100.000
294.84	91.649
295.21	91.873
295.58	99.630
295.95	99.417
296.32	98.617
296.69	91.108
297.06	97.050
297.43	104.662
297.80	106.286
298.17	105.285
298.54	108.080
298.91	113.882
299.28	103.929
299.65	103.648
300.02	94.375
300.39	94.778
300.76	100.217
301.12	98.919
301.49	100.219
301.86	88.974
302.23	101.998
302.60	98.371
302.97	91.030
303.34	95.798
303.71	95.410
304.08	85.564
304.45	84.610
304.82	99.595
305.18	94.154
305.55	93.522
305.92	99.479
306.29	93.834
306.66	91.048
307.03	95.278
307.40	102.725
307.77	99.863
308.13	97.261
308.50	100.851
308.87	91.358
309.24	93.461
309.61	96.094
309.98	92.926
310.35	94.450
310.71	100.192
311.08	95.786
311.45	92.428
311.82	95.402
312.19	102.231
312.56	99.607
312.93	112.736
313.29	95.536
313.66	104.320
314.03	96.538
314.40	103.708
314.77	89.280
315.13	102.351
315.50	103.738
315.87	92.667
316.24	92.159
316.61	100.258
316.98	90.669
317.34	91.676
317.71	99.206
318.08	93.574
318.45	97.266
318.82	92.962
319.18	99.665
319.55	107.364
319.92	110.146
320.29	94.417
320.65	97.402
321.02	101.550
321.39	101.119
321.76	101.460
322.12	97.387
322.49	96.342
322.86	98.041
323.23	99.740
323.60	100.408
323.96	109.828
324.33	99.718
324.70	97.999
325.07	98.820
325.43	97.910
325.80	91.882
326.17	94.962
326.53	99.048
326.90	94.719
327.27	95.218
327.64	97.310
328.00	96.143
328.37	100.608
328.74	104.284
329.10	91.137
329.47	97.721
329.84	100.570
330.21	102.492
330.57	99.236
330.94	105.338
331.31	108.574
331.67	106.018
332.04	95.608
332.41	93.862
332.77	100.739
333.14	96.699
333.51	91.636
333.87	101.182
334.24	93.992
334.61	103.819
334.97	98.825
335.34	108.181
335.71	85.048
336.07	108.583
336.44	106.728
336.81	100.912
337.17	98.998
337.54	90.405
337.91	94.583
338.27	99.138
338.64	98.093
339.01	106.215
339.37	102.272
339.74	94.416
340.10	91.679
340.47	95.675
340.84	85.504
341.20	95.863
341.57	97.049
341.94	100.475
342.30	94.964
342.67	102.016
343.03	97.714
343.40	98.421
343.77	98.502
344.13	93.653
344.50	100.497
344.86	99.969
345.23	102.033
345.60	108.225
345.96	101.930
346.33	100.616
346.69	104.576
347.06	100.956
347.42	101.648
347.79	103.069
348.15	106.229
348.52	96.295
348.89	91.061
349.25	98.431
349.62	99.720
349.98	90.531
350.35	92.469
350.71	98.033
351.08	90.073
351.44	89.782
351.81	99.035
352.17	90.613
352.54	97.510
352.91	92.086
353.27	99.276
353.64	99.609
354.00	100.062
354.37	108.118
354.73	97.982
355.10	104.775
355.46	102.275
355.83	99.415
356.19	97.584
356.56	95.237
356.92	96.862
357.29	98.262
357.65	92.608
358.02	111.745
358.38	100.815
358.74	111.742
359.11	97.266
359.47	94.515
359.84	93.070
360.20	93.965
360.57	95.789
360.93	98.841
361.30	93.312
361.66	106.113
362.03	99.766
362.39	91.403
362.75	95.897
363.12	100.027
363.48	101.501
363.85	96.723
364.21	98.343
364.58	108.787
364.94	92.162
365.30	106.208
365.67	97.287
366.03	89.479
366.40	90.463
366.76	105.788
367.13	93.939
367.49	94.196
367.85	102.241
368.22	105.009
368.58	99.042
368.95	98.732
369.31	96.226
369.67	104.665
370.04	94.056
370.40	93.109
370.76	93.768
371.13	94.420
371.49	101.009
371.86	102.062
372.22	100.085
372.58	93.829
372.95	93.652
373.31	97.017
373.67	98.925
374.04	92.413
374.40	104.838
374.76	96.634
375.13	92.796
375.49	92.384
375.85	100.762
376.22	99.718
376.58	98.151
376.94	105.355
377.31	106.043
377.67	97.130
378.03	96.516
378.40	104.884
378.76	99.680
379.12	99.218
379.49	103.922
379.85	103.724
380.21	103.269
380.57	101.936
380.94	105.511
381.30	100.952
381.66	95.536
382.03	94.388
382.39	102.512
382.75	103.198
383.11	96.460
383.48	96.974
383.84	97.128
384.20	98.998
384.56	102.172
384.93	97.136
385.29	95.423
385.65	95.764
386.01	102.307
386.38	99.450
386.74	99.105
387.10	101.412
387.46	96.108
387.83	100.915
388.19	107.412
388.55	96.503
388.91	101.595
389.28	97.403
389.64	97.771
390.00	100.188
390.36	96.113
390.72	97.945
391.09	100.072
391.45	97.144
391.81	98.876
392.17	96.069
392.53	96.290
392.90	96.489
393.26	102.323
393.62	101.622
393.98	96.824
394.34	96.373
394.70	97.247
395.07	97.389
395.43	94.918
395.79	101.141
396.15	99.055
396.51	100.119
396.87	100.521
397.24	100.358
397.60	95.347
397.96	100.491
398.32	98.621
398.68	98.625
399.04	98.364
399.40	100.365
399.76	98.465
400.13	100.687
400.49	97.961
400.85	102.541
401.21	99.758
401.57	100.034
401.93	102.022
402.29	98.324
402.65	101.908
403.01	97.472
403.38	99.692
403.74	95.256
404.10	97.663
404.46	101.264
404.82	100.990
405.18	95.168
405.54	102.124
405.90	98.095
406.26	97.949
406.62	103.869
406.98	98.051
407.34	98.725
407.70	99.610
408.07	102.860
408.43	101.553
408.79	96.232
409.15	99.380
409.51	100.751
409.87	96.997
410.23	101.915
410.59	101.236
410.95	99.904
411.31	99.855
411.67	101.106
412.03	97.783
412.39	101.675
412.75	100.588
413.11	100.158
413.47	98.480
413.83	101.103
414.19	100.850
414.55	101.704
414.91	98.537
415.27	100.412
415.63	98.946
415.99	101.296
416.35	97.603
416.71	99.371
417.07	100.238
417.43	99.439
417.79	99.061
418.15	100.116
418.51	100.173
418.87	99.124
419.23	100.822
419.59	99.083
419.95	96.990
420.30	98.586
420.66	99.775
421.02	101.385
421.38	101.450
421.74	99.377
422.10	99.612
422.46	100.356
422.82	99.271
423.18	98.313
423.54	100.810
423.90	99.487
424.26	98.807
424.62	101.048
424.97	101.319
425.33	100.064
425.69	99.977
426.05	99.698
426.41	98.564
426.77	100.204
427.13	101.143
427.49	98.301
427.85	100.084
428.20	97.929
428.56	98.855
428.92	100.151
429.28	97.517
429.64	99.724
430.00	98.734
430.36	99.248
430.71	98.514
431.07	97.908
431.43	100.399
431.79	99.559
432.15	97.970
432.51	98.290
432.86	101.117
433.22	99.959
433.58	100.839
433.94	100.851
434.30	98.751
434.66	99.045
435.01	99.031
435.37	100.997
435.73	100.094
436.09	100.955
436.45	100.288
436.80	100.602
437.16	99.414
437.52	100.086
437.88	100.176
438.23	99.251
438.59	99.443
438.95	101.529
439.31	99.866
439.67	100.207
440.02	100.319
440.38	100.642
440.74	100.024
441.10	99.804
441.45	99.780
441.81	99.848
442.17	100.384
442.53	100.359
442.88	101.180
443.24	100.151
443.60	100.122
443.96	99.708
444.31	100.381
444.67	99.746
445.03	100.144
445.38	100.105
445.74	100.439
446.10	100.599
446.46	100.486
446.81	100.388
447.17	99.889
447.53	100.070
447.88	100.652
448.24	100.297
448.60	99.955
448.95	100.076
449.31	100.052
449.67	100.015
450.02	100.156
450.38	100.254
450.74	99.784
451.09	99.958
451.45	100.002
451.81	100.064
452.16	100.086
452.52	99.907
452.88	99.863
453.23	100.144
453.59	100.170
453.94	100.536
454.30	99.711
454.66	100.134
455.01	99.884
455.37	100.123
455.73	99.994
456.08	100.234
456.44	99.965
456.79	99.768
457.15	100.224
457.51	100.291
457.86	100.281
458.22	99.905
458.57	100.051
458.93	100.350
459.29	100.125
459.64	100.120
460.00	99.814
460.35	99.812
460.71	99.949
461.06	99.949
461.42	100.066
461.77	99.833
462.13	100.025
462.49	100.060
462.84	100.189
463.20	100.018
463.55	100.354
463.91	100.260
464.26	100.118
464.62	99.994
464.97	100.126
465.33	100.119
465.68	100.222
466.04	100.001
466.39	100.224
466.75	100.011
467.10	100.133
467.46	100.071
467.81	100.169
468.17	100.028
468.52	100.140
468.88	100.167
469.23	99.884
469.59	100.060
469.94	99.881
470.30	100.041
470.65	100.077
471.01	100.125
471.36	99.982
471.72	99.820
472.07	100.024
472.43	100.073
472.78	99.970
473.13	100.129
473.49	99.963
473.84	99.985
474.20	99.999
474.55	100.182
474.91	100.053
475.26	99.983
475.61	100.126
475.97	100.078
476.32	100.125
476.68	100.107
477.03	100.140
477.39	100.092
477.74	99.998
478.09	100.119
478.45	99.987
478.80	100.280
479.15	99.866
479.51	100.157
479.86	100.081
480.22	100.015
480.57	99.907
480.92	100.061
481.28	100.013
481.63	100.377
481.98	100.129
482.34	100.253
482.69	99.890
483.04	99.977
483.40	100.082
483.75	100.140
484.10	100.277
484.46	100.000
484.81	100.199
485.16	100.132
485.52	100.060
485.87	99.994
486.22	100.176
486.58	100.388
486.93	100.037
487.28	100.098
487.64	99.973
487.99	100.026
488.34	99.939
488.70	100.015
489.05	100.045
489.40	100.058
489.75	100.277
490.11	99.981
490.46	100.107
490.81	100.126
491.16	99.902
491.52	100.439
491.87	100.200
492.22	100.109
492.57	99.861
492.93	99.938
493.28	100.076
493.63	99.933
493.98	99.843
494.34	100.235
494.69	100.111
495.04	100.275
495.39	100.146
495.75	99.885
496.10	99.998
496.45	99.890
496.80	100.220
497.15	100.115
497.51	100.168
497.86	100.471
498.21	100.069
498.56	99.999
498.91	100.252
499.27	99.893
499.62	100.192
499.97	100.149
500.32	100.246
500.67	99.959
501.02	100.229
501.38	100.120
501.73	99.714
502.08	100.334
502.43	99.979
502.78	100.044
503.13	100.012
503.48	100.211
503.84	100.075
504.19	100.078
504.54	100.038
504.89	100.152
505.24	100.074
505.59	100.185
505.94	100.185
506.29	100.072
506.65	99.856
507.00	100.096
507.35	100.053
507.70	100.270
508.05	100.090
508.40	99.937
508.75	100.440
509.10	99.966
509.45	100.040
509.80	99.877
510.15	100.131
510.50	100.072
510.86	100.117
511.21	99.965
511.56	99.980
511.91	100.212
512.26	100.037
512.61	99.966
512.96	100.171
513.31	100.419
513.66	100.118
514.01	99.988
514.36	100.333
514.71	100.201
515.06	100.217
515.41	100.028
515.76	100.024
516.11	100.139
516.46	99.978
516.81	100.052
517.16	100.104
517.51	100.040
517.86	100.215
518.21	99.869
518.56	100.295
518.91	100.297
519.26	100.241
519.61	100.079
519.96	100.050
520.31	100.153
520.66	100.194
521.01	99.863
521.36	100.199
521.71	99.986
522.06	100.124
522.40	100.111
522.75	100.297
523.10	100.259
523.45	100.363
523.80	99.905
524.15	99.946
524.50	99.943
524.85	99.959
525.20	99.858
525.55	99.706
525.90	99.749
526.25	100.290
526.59	99.932
526.94	100.026
527.29	100.393
527.64	100.079
527.99	100.133
528.34	100.086
528.69	99.902
529.04	100.134
529.39	100.016
529.73	100.267
530.08	99.806
530.43	100.213
530.78	100.037
531.13	100.176
531.48	99.971
531.82	100.207
532.17	100.103
532.52	99.904
532.87	100.205
533.22	100.351
533.57	100.349
533.91	99.927
534.26	100.340
534.61	100.084
534.96	100.166
535.31	100.175
535.65	100.398
536.00	100.192
536.35	100.153
536.70	100.171
537.05	99.999
537.39	99.930
537.74	99.993
538.09	99.975
538.44	100.324
538.78	100.007
539.13	100.071
539.48	100.425
539.83	100.114
540.17	99.836
540.52	100.071
540.87	100.164
541.22	100.301
541.56	100.159
541.91	100.314
542.26	99.981
542.61	100.207
542.95	100.165
543.30	100.265
543.65	100.095
543.99	100.267
544.34	100.126
544.69	100.209
545.04	100.112
545.38	100.437
545.73	100.122
546.08	99.985
546.42	99.984
546.77	99.965
547.12	100.188
547.46	100.281
547.81	99.794
548.16	99.903
548.50	99.901
548.85	99.960
549.20	100.273
549.54	100.394
549.89	100.067
550.23	100.509
550.58	100.167
550.93	100.072
551.27	99.924
551.62	100.253
551.97	100.025
552.31	100.445
552.66	100.430
553.00	100.179
553.35	99.890
553.70	99.789
554.04	100.010
554.39	99.875
554.73	100.103
555.08	100.357
555.43	100.244
555.77	99.974
556.12	99.853
556.46	100.232
556.81	100.190
557.15	99.881
557.50	100.115
557.85	100.185
558.19	100.318
558.54	99.895
558.88	99.972
559.23	100.215
559.57	99.853
559.92	100.109
560.26	100.425
560.61	99.848
560.95	100.078
561.30	100.153
561.64	99.991
561.99	100.120
562.33	100.144
562.68	100.263
563.02	100.247
563.37	100.236
563.71	99.938
564.06	100.211
564.40	100.325
564.75	99.950
565.09	100.158
565.44	100.163
565.78	100.172
566.13	100.256
566.47	100.028
566.82	99.975
567.16	100.315
567.50	99.918
567.85	100.132
568.19	100.097
568.54	100.216
568.88	100.106
569.23	100.310
569.57	100.122
569.91	100.164
570.26	100.033
570.60	99.806
570.95	100.039
571.29	100.195
571.63	99.979
571.98	99.896
572.32	100.084
572.67	99.977
573.01	100.088
573.35	100.222
573.70	100.262
574.04	99.921
574.38	100.029
574.73	100.067
575.07	100.113
575.41	100.081
575.76	100.194
576.10	99.960
576.45	99.967
576.79	99.845
577.13	100.100
577.48	99.910
577.82	99.986
578.16	100.130
578.50	99.999
578.85	100.098
579.19	100.112
579.53	100.121
579.88	100.010
580.22	100.319
580.56	100.018
580.91	100.327
581.25	99.988
581.59	100.302
581.93	100.412
582.28	100.196
582.62	100.206
582.96	99.938
583.30	100.324
583.65	100.135
583.99	99.806
584.33	100.283
584.67	99.977
585.02	100.078
585.36	99.980
585.70	100.070
586.04	100.220
586.39	100.098
586.73	100.220
587.07	99.989
587.41	100.169
587.76	99.867
588.10	100.233
588.44	99.982
588.78	100.251
589.12	100.173
589.46	100.081
589.81	100.057
590.15	100.146
590.49	99.936
590.83	99.994
591.17	100.083
591.52	99.973
591.86	99.927
592.20	100.195
592.54	100.237
592.88	100.106
593.22	100.190
593.56	99.880
593.91	100.245
594.25	100.008
594.59	100.207
594.93	100.128
595.27	100.500
595.61	100.157
595.95	100.045
596.29	100.326
596.63	100.135
596.98	100.252
597.32	100.108
597.66	100.251
598.00	100.316
598.34	100.269
598.68	100.151
599.02	100.117
599.36	100.054
599.70	100.098
600.04	100.194
600.38	100.155
600.72	100.069
601.06	100.154
601.41	100.258
601.75	100.129
602.09	100.212
602.43	100.249
602.77	100.063
603.11	100.215
603.45	100.017
603.79	100.174
604.13	100.021
604.47	100.291
604.81	100.039
605.15	100.050
605.49	100.228
605.83	100.205
606.17	100.121
606.51	100.036
606.85	100.154
607.19	100.127
607.53	100.144
607.87	100.137
608.21	100.068
608.55	100.391
608.88	100.192
609.22	100.057
609.56	100.211
609.90	100.179
610.24	100.241
610.58	100.053
610.92	100.255
611.26	100.326
611.60	100.091
611.94	100.038
612.28	100.238
612.62	100.130
612.96	100.115
613.30	100.149
613.63	100.106
613.97	100.208
614.31	100.296
614.65	99.978
614.99	100.242
615.33	100.333
615.67	100.095
616.01	100.194
616.34	100.274
616.68	100.272
617.02	99.954
617.36	100.005
617.70	100.094
618.04	100.274
618.38	100.162
618.71	100.115
619.05	100.085
619.39	100.212
619.73	100.146
620.07	100.058
620.40	100.307
620.74	100.329
621.08	100.194
621.42	100.084
621.76	100.071
622.10	100.199
622.43	100.071
622.77	100.215
623.11	100.182
623.45	100.234
623.78	100.219
624.12	100.072
624.46	100.149
624.80	100.067
625.13	100.210
625.47	100.253
625.81	100.136
626.15	100.271
626.48	100.313
626.82	100.211
627.16	100.127
627.50	100.252
627.83	100.162
628.17	100.194
628.51	100.260
628.84	100.126
629.18	100.213
629.52	100.322
629.86	100.321
630.19	100.270
630.53	100.220
630.87	100.119
631.20	100.139
631.54	100.035
631.88	100.220
632.21	100.195
632.55	100.141
632.89	100.087
633.22	100.035
633.56	100.412
633.90	100.106
634.23	100.307
634.57	100.241
634.91	100.178
635.24	100.288
635.58	100.120
635.91	100.198
636.25	100.114
