SpectraSuite Data File
++++++++++++++++++++++++++++++++++++
Date: Fri Oct 31 12:50:52 PDT 2014
User: tbrown
Dark Spectrum Present: Yes
Reference Spectrum Present: Yes
Number of Sampled Component Spectra: 1
Spectrometers: JAZA2166
Integration Time (usec): 2200 (JAZA2166)
Spectra Averaged: 50 (JAZA2166)
Boxcar Smoothing: 0 (JAZA2166)
Correct for Electrical Dark: No (JAZA2166)
Strobe/Lamp Enabled: No (JAZA2166)
Correct for Detector Non-linearity: No (JAZA2166)
Correct for Stray Light: No (JAZA2166)
Number of Pixels in Processed Spectrum: 2048
>>>>>Begin Processed Spectral Data<<<<<
190.71	109.460
191.09	109.460
191.46	109.460
191.84	105.243
192.22	111.224
192.59	111.773
192.97	104.079
193.34	107.047
193.72	113.265
194.10	111.640
194.47	108.676
194.85	111.416
195.23	109.208
195.60	108.711
195.98	104.924
196.36	110.727
196.73	113.394
197.11	104.765
197.48	108.819
197.86	107.774
198.24	104.927
198.61	107.452
198.99	108.833
199.37	107.241
199.74	110.597
200.12	188.276
200.49	228.679
200.87	467.241
201.25	-168.000
201.62	800.000
202.00	1030.303
202.37	412.069
202.75	-34.646
203.12	715.190
203.50	713.462
203.88	-51.825
204.25	-199.554
204.63	-700.000
205.00	208.235
205.38	621.429
205.75	-86.667
206.13	1580.556
206.51	550.000
206.88	242.453
207.26	-1261.905
207.63	-166.474
208.01	248.227
208.38	1156.410
208.76	-239.091
209.14	1490.625
209.51	-109.363
209.89	-231.677
210.26	-431.081
210.64	-47.447
211.01	168.675
211.39	-41.667
211.76	-171.930
212.14	-31.551
212.51	-1428.571
212.89	-320.455
213.26	-76.457
213.64	-62.667
214.01	7.889
214.39	38.631
214.76	-37.313
215.14	-28.996
215.51	-256.579
215.89	-433.835
216.26	-46.903
216.64	-30.364
217.01	-514.516
217.39	-448.148
217.76	-13.514
218.14	1303.704
218.51	-25.275
218.89	-141.748
219.26	-79.562
219.64	-3.819
220.01	-41.553
220.39	-14900.000
220.76	-79.480
221.14	16.022
221.51	8.239
221.89	-123.151
222.26	9.665
222.64	-39.233
223.01	18.313
223.39	-19.722
223.76	-73.118
224.14	-353.571
224.51	-40.569
224.88	183.436
225.26	24.850
225.63	-44.444
226.01	-9.574
226.38	-153.000
226.76	-112.195
227.13	-114.118
227.50	-31.845
227.88	41.393
228.25	-7.453
228.63	-13.966
229.00	58.333
229.38	0.364
229.75	34.134
230.12	-5.326
230.50	46.655
230.87	191.667
231.25	-46.324
231.62	-34.066
231.99	-43.046
232.37	26.261
232.74	-64.655
233.12	23.483
233.49	21.183
233.86	38.209
234.24	-74.006
234.61	-60.156
234.99	15.022
235.36	-10.714
235.73	-58.465
236.11	18.798
236.48	17.728
236.86	37.980
237.23	45.144
237.60	16.036
237.98	-55.102
238.35	-86.019
238.72	2.695
239.10	34.184
239.47	3.684
239.84	53.242
240.22	-23.853
240.59	-11.636
240.96	-7.965
241.34	58.615
241.71	-34.491
242.08	31.625
242.46	5.363
242.83	42.275
243.20	10.969
243.58	-13.011
243.95	24.895
244.32	-24.528
244.70	40.887
245.07	42.489
245.44	3.863
245.82	2.225
246.19	6.275
246.56	-2.611
246.94	1.141
247.31	4.268
247.68	34.529
248.05	40.727
248.43	37.500
248.80	42.494
249.17	48.866
249.55	41.832
249.92	40.096
250.29	44.476
250.67	73.518
251.04	50.897
251.41	56.772
251.78	38.144
252.16	12.805
252.53	60.540
252.90	-5.902
253.27	58.346
253.65	47.729
254.02	37.528
254.39	59.404
254.76	75.120
255.14	27.814
255.51	10.738
255.88	98.182
256.25	40.625
256.63	76.738
257.00	34.058
257.37	20.790
257.74	41.505
258.12	64.498
258.49	41.176
258.86	41.394
259.23	42.464
259.60	3.945
259.98	39.390
260.35	45.516
260.72	52.820
261.09	70.946
261.47	41.758
261.84	75.763
262.21	65.052
262.58	96.160
262.95	100.542
263.32	75.344
263.70	62.560
264.07	48.337
264.44	47.455
264.81	67.674
265.18	69.969
265.56	75.404
265.93	63.818
266.30	48.725
266.67	70.492
267.04	66.235
267.41	69.135
267.79	68.957
268.16	75.215
268.53	86.466
268.90	70.141
269.27	79.622
269.64	80.822
270.02	83.026
270.39	79.879
270.76	88.777
271.13	84.099
271.50	93.837
271.87	101.127
272.24	78.251
272.61	93.800
272.99	78.479
273.36	84.492
273.73	81.198
274.10	74.912
274.47	72.903
274.84	79.115
275.21	97.170
275.58	68.384
275.96	87.342
276.33	88.522
276.70	76.271
277.07	78.869
277.44	78.939
277.81	81.874
278.18	82.038
278.55	79.750
278.92	94.170
279.29	76.046
279.66	63.164
280.04	74.529
280.41	71.857
280.78	72.840
281.15	97.197
281.52	80.000
281.89	64.537
282.26	82.487
282.63	69.811
283.00	79.280
283.37	77.062
283.74	79.004
284.11	83.491
284.48	83.475
284.85	80.285
285.22	78.210
285.59	72.488
285.96	87.631
286.33	85.002
286.70	62.786
287.07	81.631
287.44	74.593
287.81	78.185
288.19	83.993
288.56	78.488
288.93	87.789
289.30	85.086
289.67	78.673
290.04	81.130
290.41	85.372
290.78	76.196
291.15	89.173
291.52	84.790
291.89	77.566
292.26	75.203
292.63	76.967
292.99	78.053
293.36	84.883
293.73	88.941
294.10	87.637
294.47	78.374
294.84	75.430
295.21	82.300
295.58	84.677
295.95	90.188
296.32	84.244
296.69	86.563
297.06	84.440
297.43	89.173
297.80	91.846
298.17	84.519
298.54	86.377
298.91	96.278
299.28	77.635
299.65	85.765
300.02	82.785
300.39	79.464
300.76	80.101
301.12	76.959
301.49	85.516
301.86	75.935
302.23	75.598
302.60	86.133
302.97	69.657
303.34	86.080
303.71	81.606
304.08	73.200
304.45	81.844
304.82	81.472
305.18	83.120
305.55	82.069
305.92	80.380
306.29	77.400
306.66	86.006
307.03	85.923
307.40	97.595
307.77	85.223
308.13	77.612
308.50	81.540
308.87	77.778
309.24	90.241
309.61	88.855
309.98	80.836
310.35	75.989
310.71	83.855
311.08	94.013
311.45	82.300
311.82	86.910
312.19	88.400
312.56	89.613
312.93	87.939
313.29	85.172
313.66	94.499
314.03	84.807
314.40	91.719
314.77	72.669
315.13	89.308
315.50	86.111
315.87	71.696
316.24	86.990
316.61	89.073
316.98	79.547
317.34	90.234
317.71	79.282
318.08	85.265
318.45	91.892
318.82	82.792
319.18	84.155
319.55	93.696
319.92	90.226
320.29	92.600
320.65	81.189
321.02	76.969
321.39	103.031
321.76	79.031
322.12	80.705
322.49	77.368
322.86	85.459
323.23	96.527
323.60	92.828
323.96	90.594
324.33	86.738
324.70	85.890
325.07	88.627
325.43	88.602
325.80	87.075
326.17	86.410
326.53	85.025
326.90	91.049
327.27	86.665
327.64	95.105
328.00	79.253
328.37	90.541
328.74	89.290
329.10	79.765
329.47	90.015
329.84	93.221
330.21	99.520
330.57	82.177
330.94	84.776
331.31	94.687
331.67	90.181
332.04	94.166
332.41	86.243
332.77	87.069
333.14	88.692
333.51	79.232
333.87	85.634
334.24	86.856
334.61	85.525
334.97	84.548
335.34	80.618
335.71	80.045
336.07	89.372
336.44	88.517
336.81	84.337
337.17	89.827
337.54	82.440
337.91	82.698
338.27	88.317
338.64	89.576
339.01	92.279
339.37	78.881
339.74	79.272
340.10	85.739
340.47	75.588
340.84	83.247
341.20	80.571
341.57	85.276
341.94	79.816
342.30	85.731
342.67	84.449
343.03	90.473
343.40	83.089
343.77	83.720
344.13	78.354
344.50	83.886
344.86	86.507
345.23	81.934
345.60	91.775
345.96	84.903
346.33	83.475
346.69	85.732
347.06	90.716
347.42	88.241
347.79	80.407
348.15	93.022
348.52	89.180
348.89	82.371
349.25	88.441
349.62	90.751
349.98	84.227
350.35	86.529
350.71	80.393
351.08	84.673
351.44	74.521
351.81	84.936
352.17	88.468
352.54	80.544
352.91	93.511
353.27	82.396
353.64	83.453
354.00	84.941
354.37	83.658
354.73	91.466
355.10	85.395
355.46	86.377
355.83	84.205
356.19	89.873
356.56	84.994
356.92	83.754
357.29	84.492
357.65	83.873
358.02	88.194
358.38	88.095
358.74	101.367
359.11	83.153
359.47	89.748
359.84	80.145
360.20	85.394
360.57	89.458
360.93	95.365
361.30	88.796
361.66	88.783
362.03	85.267
362.39	81.022
362.75	84.561
363.12	85.012
363.48	96.351
363.85	87.310
364.21	83.375
364.58	90.282
364.94	90.509
365.30	90.188
365.67	87.640
366.03	86.658
366.40	78.832
366.76	87.085
367.13	90.284
367.49	90.441
367.85	89.168
368.22	91.555
368.58	84.020
368.95	84.209
369.31	89.092
369.67	92.297
370.04	93.840
370.40	80.875
370.76	90.744
371.13	91.940
371.49	92.287
371.86	95.743
372.22	92.345
372.58	86.093
372.95	83.783
373.31	92.913
373.67	91.400
374.04	85.499
374.40	91.989
374.76	90.616
375.13	86.463
375.49	83.241
375.85	90.779
376.22	90.619
376.58	89.408
376.94	93.630
377.31	91.097
377.67	93.609
378.03	90.631
378.40	88.694
378.76	90.797
379.12	91.899
379.49	95.171
379.85	92.350
380.21	98.535
380.57	98.172
380.94	102.682
381.30	97.354
381.66	91.501
382.03	88.341
382.39	93.047
382.75	94.585
383.11	93.198
383.48	91.074
383.84	91.578
384.20	88.434
384.56	90.161
384.93	91.067
385.29	98.421
385.65	91.337
386.01	98.215
386.38	96.560
386.74	96.700
387.10	91.122
387.46	91.359
387.83	90.557
388.19	95.672
388.55	90.550
388.91	98.421
389.28	88.529
389.64	91.361
390.00	88.654
390.36	91.355
390.72	94.529
391.09	93.268
391.45	95.915
391.81	94.607
392.17	89.846
392.53	95.796
392.90	94.786
393.26	94.561
393.62	94.410
393.98	92.060
394.34	90.123
394.70	95.227
395.07	95.361
395.43	93.278
395.79	96.246
396.15	95.356
396.51	98.004
396.87	94.115
397.24	95.615
397.60	92.432
397.96	96.654
398.32	96.520
398.68	94.491
399.04	97.818
399.40	97.359
399.76	94.899
400.13	96.310
400.49	95.123
400.85	96.929
401.21	97.725
401.57	94.537
401.93	98.611
402.29	94.895
402.65	96.432
403.01	93.662
403.38	96.380
403.74	94.008
404.10	92.767
404.46	92.847
404.82	94.798
405.18	91.691
405.54	96.582
405.90	93.807
406.26	94.066
406.62	96.189
406.98	90.781
407.34	97.740
407.70	96.768
408.07	96.846
408.43	98.436
408.79	96.746
409.15	94.027
409.51	98.735
409.87	96.769
410.23	98.987
410.59	99.044
410.95	96.968
411.31	96.222
411.67	96.329
412.03	98.111
412.39	96.925
412.75	98.641
413.11	97.084
413.47	97.294
413.83	101.231
414.19	99.968
414.55	98.927
414.91	96.553
415.27	96.960
415.63	96.601
415.99	97.471
416.35	97.828
416.71	98.147
417.07	99.427
417.43	98.458
417.79	98.451
418.15	99.292
418.51	99.351
418.87	98.656
419.23	98.224
419.59	99.233
419.95	96.404
420.30	97.566
420.66	99.204
421.02	99.761
421.38	99.091
421.74	98.280
422.10	98.147
422.46	99.156
422.82	98.680
423.18	96.672
423.54	98.747
423.90	98.044
424.26	97.373
424.62	98.574
424.97	100.217
425.33	98.553
425.69	100.624
426.05	96.876
426.41	96.346
426.77	96.685
427.13	98.905
427.49	95.553
427.85	98.187
428.20	98.302
428.56	96.987
428.92	97.564
429.28	97.349
429.64	99.033
430.00	99.165
430.36	97.080
430.71	98.256
431.07	98.978
431.43	96.922
431.79	96.708
432.15	96.602
432.51	96.997
432.86	100.143
433.22	99.057
433.58	98.365
433.94	98.449
434.30	97.550
434.66	97.577
435.01	98.449
435.37	99.129
435.73	100.052
436.09	100.230
436.45	98.876
436.80	99.780
437.16	99.346
437.52	99.177
437.88	99.672
438.23	98.745
438.59	99.850
438.95	99.886
439.31	100.244
439.67	99.889
440.02	100.047
440.38	99.919
440.74	98.299
441.10	99.386
441.45	99.372
441.81	100.157
442.17	100.507
442.53	100.415
442.88	100.784
443.24	100.080
443.60	100.545
443.96	100.478
444.31	100.283
444.67	100.394
445.03	100.750
445.38	99.749
445.74	100.442
446.10	100.578
446.46	100.711
446.81	100.431
447.17	100.571
447.53	100.516
447.88	100.450
448.24	100.514
448.60	100.480
448.95	100.259
449.31	100.246
449.67	100.057
450.02	100.297
450.38	100.084
450.74	99.496
451.09	100.122
451.45	100.286
451.81	100.076
452.16	100.388
452.52	100.158
452.88	99.859
453.23	100.363
453.59	100.697
453.94	100.554
454.30	99.895
454.66	100.308
455.01	100.117
455.37	100.603
455.73	100.205
456.08	100.507
456.44	100.145
456.79	99.983
457.15	100.498
457.51	100.611
457.86	100.614
458.22	100.161
458.57	100.397
458.93	100.479
459.29	100.518
459.64	100.238
460.00	100.255
460.35	100.426
460.71	100.053
461.06	100.384
461.42	100.364
461.77	100.346
462.13	100.315
462.49	100.114
462.84	100.478
463.20	100.501
463.55	100.554
463.91	100.634
464.26	100.323
464.62	99.981
464.97	100.310
465.33	100.147
465.68	100.397
466.04	100.232
466.39	100.327
466.75	100.515
467.10	100.335
467.46	100.271
467.81	100.581
468.17	100.525
468.52	100.364
468.88	100.259
469.23	100.076
469.59	100.199
469.94	100.226
470.30	100.125
470.65	100.166
471.01	100.273
471.36	100.212
471.72	100.085
472.07	100.188
472.43	100.228
472.78	100.164
473.13	100.363
473.49	100.160
473.84	100.250
474.20	100.101
474.55	100.418
474.91	100.455
475.26	100.351
475.61	100.371
475.97	100.516
476.32	100.369
476.68	100.337
477.03	100.403
477.39	100.338
477.74	100.292
478.09	100.425
478.45	100.289
478.80	100.462
479.15	100.081
479.51	100.232
479.86	100.253
480.22	100.387
480.57	100.358
480.92	100.341
481.28	100.376
481.63	100.297
481.98	100.283
482.34	100.453
482.69	100.386
483.04	100.436
483.40	100.372
483.75	100.022
484.10	100.528
484.46	100.179
484.81	100.408
485.16	100.163
485.52	100.218
485.87	100.129
486.22	100.336
486.58	100.556
486.93	100.194
487.28	100.110
487.64	100.065
487.99	100.298
488.34	99.989
488.70	100.294
489.05	100.170
489.40	100.103
489.75	100.529
490.11	100.160
490.46	100.238
490.81	100.565
491.16	100.209
491.52	100.340
491.87	100.362
492.22	100.375
492.57	100.392
492.93	100.134
493.28	100.351
493.63	100.191
493.98	100.222
494.34	100.542
494.69	100.530
495.04	100.474
495.39	100.307
495.75	100.078
496.10	100.370
496.45	100.353
496.80	100.618
497.15	100.345
497.51	100.236
497.86	100.457
498.21	100.425
498.56	100.316
498.91	100.630
499.27	100.026
499.62	100.400
499.97	100.298
500.32	100.384
500.67	100.478
501.02	100.293
501.38	100.593
501.73	100.170
502.08	100.563
502.43	100.126
502.78	100.349
503.13	100.129
503.48	100.286
503.84	100.295
504.19	100.093
504.54	100.106
504.89	100.196
505.24	100.236
505.59	100.159
505.94	100.349
506.29	100.113
506.65	100.028
507.00	100.134
507.35	100.028
507.70	100.348
508.05	100.247
508.40	100.374
508.75	100.469
509.10	100.204
509.45	100.375
509.80	100.254
510.15	100.289
510.50	100.209
510.86	100.370
511.21	100.144
511.56	100.326
511.91	100.392
512.26	100.235
512.61	100.378
512.96	100.173
513.31	100.304
513.66	100.587
514.01	100.142
514.36	100.306
514.71	100.345
515.06	100.430
515.41	100.239
515.76	100.161
516.11	100.369
516.46	100.150
516.81	100.219
517.16	100.395
517.51	100.320
517.86	100.341
518.21	100.401
518.56	100.378
518.91	100.623
519.26	100.671
519.61	100.092
519.96	100.401
520.31	100.521
520.66	100.487
521.01	100.287
521.36	100.443
521.71	100.234
522.06	100.424
522.40	100.021
522.75	100.316
523.10	100.401
523.45	100.439
523.80	100.067
524.15	99.943
524.50	100.173
524.85	100.167
525.20	99.884
525.55	100.154
525.90	100.151
526.25	100.363
526.59	99.969
526.94	100.383
527.29	100.464
527.64	100.049
527.99	100.391
528.34	99.970
528.69	99.961
529.04	100.201
529.39	100.005
529.73	100.374
530.08	100.136
530.43	99.955
530.78	100.005
531.13	99.966
531.48	100.123
531.82	100.287
532.17	100.071
532.52	100.097
532.87	100.509
533.22	100.395
533.57	100.417
533.91	100.229
534.26	100.479
534.61	100.483
534.96	100.514
535.31	100.358
535.65	100.453
536.00	100.143
536.35	100.319
536.70	100.311
537.05	100.140
537.39	100.009
537.74	100.413
538.09	100.408
538.44	100.539
538.78	100.450
539.13	100.314
539.48	100.553
539.83	100.332
540.17	100.395
540.52	100.329
540.87	100.127
541.22	100.307
541.56	100.379
541.91	100.325
542.26	100.286
542.61	100.301
542.95	100.354
543.30	100.778
543.65	100.379
543.99	100.708
544.34	100.484
544.69	100.625
545.04	100.411
545.38	100.495
545.73	100.656
546.08	100.343
546.42	100.225
546.77	100.597
547.12	100.528
547.46	100.566
547.81	100.319
548.16	100.217
548.50	100.073
548.85	100.550
549.20	100.361
549.54	100.534
549.89	100.297
550.23	100.670
550.58	100.254
550.93	100.508
551.27	100.471
551.62	100.555
551.97	100.246
552.31	100.700
552.66	100.644
553.00	100.277
553.35	100.384
553.70	100.405
554.04	100.578
554.39	100.128
554.73	100.232
555.08	100.644
555.43	100.357
555.77	100.534
556.12	100.161
556.46	100.296
556.81	100.598
557.15	100.432
557.50	100.094
557.85	100.362
558.19	100.419
558.54	100.009
558.88	99.838
559.23	100.030
559.57	100.169
559.92	100.401
560.26	100.470
560.61	100.098
560.95	100.209
561.30	100.221
561.64	100.183
561.99	100.194
562.33	100.560
562.68	100.306
563.02	100.344
563.37	100.229
563.71	100.234
564.06	100.388
564.40	100.572
564.75	100.156
565.09	100.393
565.44	100.298
565.78	100.282
566.13	100.172
566.47	100.306
566.82	100.151
567.16	100.382
567.50	100.158
567.85	100.075
568.19	100.112
568.54	100.210
568.88	100.141
569.23	100.285
569.57	100.177
569.91	100.234
570.26	99.841
570.60	100.021
570.95	100.179
571.29	100.289
571.63	100.243
571.98	100.169
572.32	100.564
572.67	100.136
573.01	100.315
573.35	100.295
573.70	100.334
574.04	100.229
574.38	100.213
574.73	100.272
575.07	100.066
575.41	100.437
575.76	100.266
576.10	100.111
576.45	100.205
576.79	100.027
577.13	100.015
577.48	100.115
577.82	100.227
578.16	100.118
578.50	100.090
578.85	100.440
579.19	100.411
579.53	100.206
579.88	100.417
580.22	100.467
580.56	100.165
580.91	100.497
581.25	100.315
581.59	100.467
581.93	100.709
582.28	100.429
582.62	100.387
582.96	100.251
583.30	100.625
583.65	100.389
583.99	100.068
584.33	100.416
584.67	100.192
585.02	100.100
585.36	100.286
585.70	100.226
586.04	100.539
586.39	100.247
586.73	100.430
587.07	100.139
587.41	100.535
587.76	100.277
588.10	100.370
588.44	100.200
588.78	100.353
589.12	100.334
589.46	100.351
589.81	100.457
590.15	100.488
590.49	100.476
590.83	100.361
591.17	100.314
591.52	100.420
591.86	100.300
592.20	100.446
592.54	100.604
592.88	100.521
593.22	100.318
593.56	100.113
593.91	100.397
594.25	100.387
594.59	100.309
594.93	100.299
595.27	100.412
595.61	100.443
595.95	100.239
596.29	100.473
596.63	100.427
596.98	100.619
597.32	100.301
597.66	100.548
598.00	100.725
598.34	100.382
598.68	100.384
599.02	100.358
599.36	100.431
599.70	100.473
600.04	100.321
600.38	100.479
600.72	100.527
601.06	100.494
601.41	100.244
601.75	100.305
602.09	100.438
602.43	100.562
602.77	100.482
603.11	100.229
603.45	100.207
603.79	100.210
604.13	100.233
604.47	100.393
604.81	100.332
605.15	100.201
605.49	100.242
605.83	100.422
606.17	100.278
606.51	100.159
606.85	100.403
607.19	100.222
607.53	100.252
607.87	100.495
608.21	100.363
608.55	100.452
608.88	100.264
609.22	100.457
609.56	100.328
609.90	100.200
610.24	100.404
610.58	100.135
610.92	100.341
611.26	100.548
611.60	100.428
611.94	100.502
612.28	100.674
612.62	100.414
612.96	100.386
613.30	100.351
613.63	100.484
613.97	100.315
614.31	100.574
614.65	100.172
614.99	100.585
615.33	100.606
615.67	100.428
616.01	100.596
616.34	100.495
616.68	100.517
617.02	100.585
617.36	100.429
617.70	100.465
618.04	100.589
618.38	100.659
618.71	100.494
619.05	100.421
619.39	100.700
619.73	100.544
620.07	100.654
620.40	100.609
620.74	100.628
621.08	100.703
621.42	100.460
621.76	100.547
622.10	100.659
622.43	100.408
622.77	100.460
623.11	100.556
623.45	100.388
623.78	100.557
624.12	100.388
624.46	100.357
624.80	100.326
625.13	100.576
625.47	100.459
625.81	100.585
626.15	100.636
626.48	100.634
626.82	100.534
627.16	100.492
627.50	100.472
627.83	100.586
628.17	100.440
628.51	100.521
628.84	100.511
629.18	100.523
629.52	100.525
629.86	100.680
630.19	100.687
630.53	100.659
630.87	100.469
631.20	100.508
631.54	100.579
631.88	100.485
632.21	100.569
632.55	100.556
632.89	100.449
633.22	100.307
633.56	100.612
633.90	100.413
634.23	100.580
634.57	100.505
634.91	100.594
635.24	100.432
635.58	100.429
635.91	100.417
636.25	100.349
636.59	100.571
636.92	100.410
637.26	100.368
