SpectraSuite Data File
++++++++++++++++++++++++++++++++++++
Date: Fri Oct 31 12:48:52 PDT 2014
User: tbrown
Dark Spectrum Present: Yes
Reference Spectrum Present: Yes
Number of Sampled Component Spectra: 1
Spectrometers: JAZA2166
Integration Time (usec): 2200 (JAZA2166)
Spectra Averaged: 50 (JAZA2166)
Boxcar Smoothing: 0 (JAZA2166)
Correct for Electrical Dark: No (JAZA2166)
Strobe/Lamp Enabled: No (JAZA2166)
Correct for Detector Non-linearity: No (JAZA2166)
Correct for Stray Light: No (JAZA2166)
Number of Pixels in Processed Spectrum: 2048
>>>>>Begin Processed Spectral Data<<<<<
190.71	107.058
191.09	107.058
191.46	107.058
191.84	103.727
192.22	110.736
192.59	107.542
192.97	105.655
193.34	108.776
193.72	106.359
194.10	108.939
194.47	111.874
194.85	107.704
195.23	104.677
195.60	102.744
195.98	105.725
196.36	106.132
196.73	113.280
197.11	104.153
197.48	107.219
197.86	106.887
198.24	108.256
198.61	105.033
198.99	101.518
199.37	105.467
199.74	110.159
200.12	129.655
200.49	132.075
200.87	361.207
201.25	-172.571
201.62	620.690
202.00	1000.000
202.37	435.345
202.75	196.850
203.12	846.835
203.50	942.308
203.88	-236.496
204.25	-121.875
204.63	-1029.032
205.00	134.510
205.38	617.857
205.75	-303.636
206.13	1047.222
206.51	681.481
206.88	257.547
207.26	4.762
207.63	-78.035
208.01	114.894
208.38	953.846
208.76	-167.273
209.14	1490.625
209.51	-97.378
209.89	-130.435
210.26	-324.324
210.64	-30.000
211.01	265.863
211.39	-159.615
211.76	-198.246
212.14	-0.802
212.51	-605.714
212.89	-348.485
213.26	-84.529
213.64	-87.667
214.01	53.731
214.39	20.049
214.76	-60.075
215.14	-47.955
215.51	-200.000
215.89	-318.797
216.26	-17.699
216.64	-81.781
217.01	-695.161
217.39	-429.630
217.76	-46.847
218.14	1274.074
218.51	-10.073
218.89	-38.188
219.26	1.460
219.64	20.486
220.01	-21.005
220.39	-2000.000
220.76	-19.075
221.14	27.808
221.51	22.443
221.89	-62.379
222.26	-137.175
222.64	-11.209
223.01	-0.000
223.39	-21.111
223.76	1.075
224.14	308.929
224.51	-31.317
224.88	83.436
225.26	-4.042
225.63	66.865
226.01	23.670
226.38	-201.000
226.76	-42.439
227.13	-89.020
227.50	4.762
227.88	95.745
228.25	-2.070
228.63	-14.525
229.00	38.735
229.38	66.182
229.75	12.693
230.12	40.034
230.50	6.872
230.87	166.667
231.25	-43.015
231.62	-75.824
231.99	-11.700
232.37	26.087
232.74	-25.862
233.12	14.512
233.49	21.756
233.86	23.134
234.24	41.590
234.61	-0.391
234.99	37.892
235.36	42.857
235.73	24.409
236.11	47.698
236.48	11.735
236.86	19.630
237.23	25.400
237.60	-11.359
237.98	-84.354
238.35	28.436
238.72	-66.307
239.10	50.255
239.47	16.447
239.84	37.543
240.22	16.881
240.59	-14.545
240.96	9.735
241.34	41.385
241.71	-38.426
242.08	9.717
242.46	35.331
242.83	60.955
243.20	24.863
243.58	32.342
243.95	71.941
244.32	-1.887
244.70	11.002
245.07	50.228
245.44	11.373
245.82	21.137
246.19	-14.706
246.56	23.499
246.94	47.148
247.31	52.710
247.68	64.873
248.05	53.383
248.43	40.658
248.80	30.023
249.17	-12.577
249.55	37.624
249.92	37.061
250.29	36.298
250.67	81.621
251.04	38.662
251.41	69.741
251.78	68.925
252.16	5.488
252.53	92.917
252.90	72.344
253.27	28.484
253.65	47.490
254.02	52.154
254.39	66.284
254.76	71.132
255.14	92.605
255.51	46.644
255.88	41.818
256.25	54.844
256.63	79.947
257.00	49.034
257.37	36.469
257.74	42.112
258.12	72.878
258.49	54.657
258.86	69.390
259.23	89.908
259.60	32.090
259.98	63.902
260.35	16.440
260.72	59.962
261.09	57.703
261.47	56.044
261.84	78.378
262.21	44.845
262.58	109.280
262.95	79.610
263.32	107.241
263.70	98.640
264.07	62.417
264.44	71.613
264.81	76.057
265.18	70.755
265.56	48.474
265.93	54.952
266.30	81.870
266.67	62.295
267.04	67.449
267.41	59.436
267.79	87.214
268.16	76.576
268.53	82.740
268.90	72.381
269.27	92.449
269.64	79.078
270.02	92.397
270.39	85.460
270.76	100.966
271.13	86.595
271.50	84.113
271.87	92.178
272.24	89.771
272.61	84.792
272.99	88.358
273.36	84.923
273.73	86.283
274.10	81.316
274.47	80.376
274.84	85.467
275.21	81.899
275.58	83.796
275.96	78.745
276.33	95.073
276.70	86.697
277.07	77.679
277.44	68.838
277.81	75.942
278.18	83.822
278.55	81.112
278.92	98.528
279.29	84.954
279.66	57.448
280.04	71.872
280.41	87.259
280.78	72.317
281.15	102.090
281.52	87.305
281.89	80.780
282.26	87.927
282.63	72.327
283.00	78.542
283.37	72.651
283.74	79.587
284.11	74.078
284.48	86.314
284.85	71.206
285.22	95.434
285.59	75.033
285.96	93.094
286.33	82.975
286.70	84.084
287.07	87.264
287.44	91.098
287.81	84.046
288.19	76.194
288.56	81.988
288.93	80.204
289.30	90.816
289.67	81.747
290.04	107.302
290.41	90.930
290.78	84.447
291.15	91.465
291.52	90.919
291.89	83.795
292.26	84.959
292.63	81.531
292.99	76.515
293.36	82.985
293.73	85.413
294.10	94.949
294.47	95.456
294.84	72.165
295.21	85.813
295.58	96.304
295.95	97.118
296.32	81.073
296.69	82.747
297.06	90.587
297.43	98.120
297.80	103.341
298.17	86.551
298.54	95.192
298.91	99.479
299.28	100.992
299.65	89.664
300.02	85.158
300.39	91.426
300.76	87.071
301.12	90.642
301.49	91.718
301.86	83.190
302.23	87.121
302.60	91.347
302.97	80.861
303.34	98.621
303.71	85.589
304.08	85.818
304.45	80.106
304.82	88.997
305.18	77.352
305.55	89.263
305.92	78.725
306.29	86.077
306.66	93.994
307.03	86.671
307.40	87.977
307.77	85.739
308.13	85.966
308.50	84.264
308.87	86.900
309.24	95.305
309.61	90.707
309.98	84.469
310.35	85.342
310.71	86.093
311.08	95.351
311.45	88.435
311.82	90.251
312.19	98.024
312.56	94.332
312.93	96.791
313.29	82.111
313.66	87.951
314.03	92.471
314.40	90.610
314.77	80.899
315.13	89.211
315.50	88.546
315.87	86.753
316.24	91.421
316.61	91.685
316.98	86.207
317.34	90.126
317.71	93.275
318.08	93.931
318.45	81.516
318.82	80.048
319.18	91.535
319.55	94.282
319.92	97.742
320.29	92.924
320.65	79.343
321.02	89.845
321.39	109.239
321.76	89.317
322.12	89.928
322.49	81.026
322.86	88.965
323.23	91.821
323.60	90.789
323.96	90.561
324.33	87.520
324.70	99.052
325.07	107.178
325.43	88.831
325.80	81.712
326.17	87.239
326.53	87.722
326.90	92.593
327.27	84.733
327.64	88.655
328.00	84.821
328.37	93.243
328.74	91.944
329.10	78.429
329.47	88.726
329.84	95.977
330.21	89.129
330.57	88.902
330.94	82.407
331.31	94.519
331.67	86.379
332.04	87.512
332.41	91.333
332.77	89.470
333.14	90.037
333.51	89.860
333.87	88.324
334.24	86.276
334.61	91.099
334.97	95.623
335.34	79.916
335.71	85.750
336.07	97.224
336.44	96.125
336.81	89.189
337.17	94.412
337.54	89.800
337.91	84.549
338.27	90.844
338.64	91.574
339.01	98.807
339.37	83.863
339.74	81.093
340.10	93.178
340.47	75.239
340.84	73.973
341.20	91.213
341.57	89.454
341.94	92.342
342.30	94.848
342.67	89.490
343.03	95.745
343.40	84.381
343.77	89.683
344.13	86.280
344.50	91.313
344.86	95.844
345.23	99.148
345.60	99.734
345.96	86.978
346.33	87.937
346.69	87.671
347.06	91.672
347.42	93.217
347.79	90.103
348.15	97.694
348.52	89.562
348.89	89.367
349.25	95.773
349.62	91.436
349.98	87.951
350.35	90.339
350.71	84.419
351.08	83.803
351.44	80.504
351.81	84.936
352.17	74.154
352.54	83.466
352.91	95.473
353.27	86.278
353.64	94.756
354.00	78.811
354.37	88.763
354.73	105.666
355.10	95.411
355.46	89.236
355.83	84.962
356.19	90.121
356.56	85.149
356.92	93.385
357.29	90.033
357.65	78.345
358.02	85.649
358.38	88.095
358.74	98.107
359.11	93.897
359.47	84.886
359.84	86.110
360.20	88.309
360.57	85.483
360.93	96.492
361.30	81.094
361.66	89.821
362.03	90.208
362.39	81.708
362.75	98.219
363.12	93.802
363.48	94.438
363.85	87.074
364.21	92.323
364.58	100.582
364.94	89.389
365.30	100.000
365.67	91.527
366.03	86.685
366.40	85.707
366.76	95.525
367.13	91.029
367.49	88.472
367.85	93.036
368.22	97.771
368.58	87.422
368.95	95.418
369.31	89.408
369.67	99.904
370.04	90.724
370.40	89.517
370.76	84.194
371.13	84.699
371.49	96.121
371.86	94.856
372.22	94.232
372.58	96.914
372.95	89.920
373.31	94.923
373.67	94.161
374.04	91.699
374.40	100.608
374.76	95.625
375.13	88.931
375.49	88.190
375.85	92.192
376.22	95.394
376.58	91.612
376.94	99.173
377.31	96.211
377.67	89.718
378.03	93.547
378.40	90.069
378.76	95.372
379.12	90.034
379.49	99.909
379.85	95.171
380.21	98.410
380.57	97.575
380.94	101.022
381.30	96.578
381.66	99.024
382.03	90.479
382.39	94.212
382.75	93.828
383.11	94.542
383.48	90.110
383.84	88.980
384.20	90.914
384.56	90.885
384.93	94.484
385.29	96.551
385.65	92.702
386.01	98.064
386.38	95.115
386.74	97.977
387.10	92.959
387.46	93.519
387.83	94.478
388.19	94.207
388.55	96.438
388.91	97.640
389.28	92.898
389.64	95.030
390.00	101.315
390.36	99.100
390.72	93.834
391.09	94.987
391.45	99.657
391.81	92.813
392.17	92.382
392.53	96.416
392.90	96.961
393.26	96.504
393.62	96.744
393.98	95.856
394.34	93.301
394.70	95.969
395.07	95.822
395.43	94.888
395.79	97.097
396.15	93.128
396.51	98.340
396.87	97.640
397.24	100.368
397.60	89.576
397.96	97.786
398.32	98.065
398.68	95.908
399.04	97.851
399.40	96.496
399.76	92.983
400.13	96.499
400.49	96.919
400.85	99.072
401.21	98.483
401.57	93.003
401.93	93.855
402.29	96.737
402.65	97.132
403.01	93.617
403.38	95.273
403.74	92.277
404.10	94.891
404.46	97.227
404.82	100.322
405.18	96.924
405.54	94.331
405.90	95.017
406.26	93.200
406.62	99.247
406.98	92.451
407.34	99.385
407.70	96.211
408.07	101.210
408.43	97.145
408.79	100.128
409.15	95.980
409.51	99.846
409.87	95.461
410.23	98.501
410.59	96.931
410.95	99.484
411.31	99.349
411.67	100.455
412.03	97.133
412.39	98.196
412.75	98.717
413.11	99.030
413.47	96.496
413.83	99.691
414.19	100.560
414.55	98.094
414.91	96.755
415.27	99.293
415.63	97.017
415.99	97.008
416.35	97.153
416.71	97.494
417.07	99.044
417.43	101.023
417.79	98.738
418.15	100.074
418.51	101.201
418.87	99.285
419.23	98.633
419.59	99.167
419.95	96.897
420.30	98.422
420.66	98.239
421.02	99.171
421.38	98.441
421.74	97.623
422.10	96.147
422.46	99.085
422.82	96.159
423.18	98.646
423.54	97.421
423.90	97.985
424.26	98.981
424.62	98.439
424.97	99.223
425.33	99.098
425.69	99.306
426.05	97.710
426.41	97.776
426.77	97.290
427.13	99.869
427.49	96.496
427.85	96.606
428.20	98.001
428.56	97.432
428.92	99.248
429.28	99.078
429.64	99.206
430.00	96.927
430.36	97.267
430.71	97.943
431.07	97.221
431.43	98.331
431.79	97.068
432.15	97.002
432.51	97.979
432.86	101.236
433.22	99.803
433.58	99.301
433.94	99.378
434.30	98.543
434.66	98.270
435.01	98.380
435.37	100.076
435.73	99.934
436.09	100.433
436.45	98.867
436.80	99.255
437.16	99.769
437.52	99.871
437.88	99.280
438.23	98.686
438.59	98.211
438.95	100.004
439.31	100.120
439.67	99.206
440.02	100.040
440.38	100.465
440.74	99.254
441.10	99.759
441.45	99.262
441.81	100.321
442.17	100.015
442.53	100.236
442.88	101.349
443.24	100.147
443.60	100.200
443.96	99.856
444.31	100.249
444.67	99.664
445.03	100.406
445.38	99.689
445.74	100.333
446.10	100.579
446.46	100.295
446.81	100.260
447.17	100.435
447.53	100.301
447.88	100.161
448.24	100.319
448.60	100.334
448.95	99.930
449.31	99.893
449.67	99.866
450.02	100.306
450.38	100.039
450.74	100.189
451.09	100.081
451.45	99.859
451.81	99.989
452.16	100.371
452.52	99.892
452.88	99.579
453.23	100.190
453.59	100.191
453.94	100.264
454.30	99.715
454.66	100.484
455.01	99.751
455.37	100.426
455.73	100.210
456.08	100.115
456.44	100.037
456.79	100.269
457.15	100.406
457.51	100.359
457.86	100.579
458.22	99.969
458.57	100.464
458.93	100.168
459.29	100.265
459.64	99.987
460.00	99.991
460.35	100.172
460.71	100.029
461.06	100.269
461.42	100.247
461.77	100.101
462.13	100.090
462.49	100.097
462.84	100.431
463.20	100.269
463.55	100.153
463.91	100.253
464.26	100.263
464.62	100.346
464.97	100.225
465.33	100.212
465.68	100.111
466.04	100.276
466.39	100.222
466.75	100.327
467.10	100.329
467.46	100.146
467.81	100.325
468.17	100.296
468.52	99.849
468.88	100.149
469.23	99.837
469.59	100.004
469.94	100.040
470.30	100.260
470.65	100.156
471.01	100.351
471.36	100.007
471.72	100.085
472.07	100.169
472.43	100.212
472.78	99.849
473.13	100.001
473.49	100.035
473.84	100.018
474.20	100.002
474.55	99.965
474.91	100.227
475.26	100.034
475.61	100.411
475.97	100.276
476.32	100.119
476.68	100.367
477.03	100.088
477.39	100.033
477.74	100.206
478.09	100.182
478.45	100.238
478.80	100.464
479.15	100.054
479.51	100.147
479.86	100.210
480.22	100.257
480.57	100.237
480.92	100.125
481.28	100.159
481.63	100.267
481.98	100.166
482.34	100.256
482.69	100.000
483.04	100.249
483.40	100.260
483.75	100.068
484.10	100.274
484.46	99.953
484.81	100.123
485.16	99.900
485.52	99.897
485.87	99.888
486.22	100.350
486.58	100.328
486.93	99.847
487.28	100.042
487.64	99.903
487.99	100.077
488.34	100.159
488.70	100.051
489.05	99.923
489.40	100.202
489.75	100.429
490.11	100.144
490.46	100.184
490.81	100.235
491.16	100.283
491.52	100.382
491.87	100.253
492.22	100.491
492.57	100.038
492.93	100.081
493.28	100.347
493.63	100.144
493.98	99.957
494.34	100.322
494.69	100.316
495.04	100.140
495.39	100.081
495.75	100.025
496.10	100.091
496.45	100.095
496.80	100.383
497.15	100.353
497.51	100.148
497.86	100.478
498.21	100.191
498.56	100.217
498.91	100.535
499.27	100.141
499.62	100.286
499.97	100.122
500.32	100.290
500.67	100.670
501.02	100.148
501.38	100.316
501.73	100.110
502.08	100.426
502.43	100.348
502.78	100.141
503.13	99.840
503.48	100.384
503.84	100.303
504.19	100.046
504.54	99.866
504.89	100.217
505.24	100.268
505.59	100.157
505.94	100.291
506.29	100.138
506.65	100.022
507.00	100.285
507.35	99.899
507.70	100.163
508.05	100.280
508.40	100.101
508.75	100.606
509.10	100.038
509.45	100.224
509.80	100.196
510.15	100.153
510.50	100.075
510.86	100.180
511.21	100.297
511.56	100.441
511.91	100.276
512.26	100.235
512.61	100.157
512.96	100.131
513.31	100.270
513.66	100.438
514.01	100.098
514.36	100.465
514.71	100.415
515.06	100.318
515.41	100.084
515.76	99.925
516.11	100.347
516.46	100.155
516.81	100.020
517.16	100.559
517.51	100.306
517.86	100.407
518.21	100.456
518.56	100.269
518.91	100.324
519.26	100.469
519.61	100.050
519.96	100.492
520.31	100.279
520.66	100.280
521.01	100.082
521.36	100.464
521.71	99.896
522.06	100.595
522.40	99.909
522.75	100.287
523.10	100.261
523.45	100.521
523.80	99.822
524.15	100.118
524.50	100.248
524.85	100.011
525.20	99.931
525.55	100.216
525.90	100.197
526.25	100.187
526.59	100.265
526.94	100.110
527.29	100.400
527.64	100.094
527.99	100.206
528.34	100.173
528.69	99.922
529.04	100.207
529.39	99.934
529.73	100.118
530.08	100.103
530.43	100.143
530.78	100.123
531.13	100.066
531.48	100.139
531.82	100.058
532.17	100.033
532.52	100.161
532.87	100.330
533.22	100.596
533.57	100.409
533.91	100.155
534.26	100.376
534.61	100.169
534.96	100.299
535.31	100.237
535.65	100.139
536.00	100.237
536.35	100.323
536.70	100.071
537.05	100.312
537.39	100.037
537.74	100.395
538.09	100.300
538.44	100.471
538.78	100.467
539.13	100.352
539.48	100.492
539.83	100.404
540.17	100.419
540.52	100.313
540.87	100.475
541.22	100.444
541.56	100.491
541.91	100.469
542.26	100.442
542.61	100.456
542.95	100.281
543.30	100.730
543.65	100.023
543.99	100.813
544.34	100.487
544.69	100.464
545.04	100.445
545.38	100.245
545.73	100.478
546.08	100.039
546.42	100.367
546.77	100.333
547.12	100.446
547.46	100.507
547.81	100.046
548.16	100.329
548.50	100.169
548.85	100.191
549.20	100.392
549.54	100.476
549.89	100.411
550.23	100.590
550.58	100.357
550.93	100.334
551.27	100.530
551.62	100.561
551.97	100.415
552.31	100.404
552.66	100.493
553.00	100.481
553.35	100.528
553.70	100.379
554.04	100.272
554.39	100.219
554.73	100.178
555.08	100.381
555.43	100.267
555.77	100.173
556.12	100.001
556.46	100.329
556.81	100.233
557.15	100.200
557.50	99.888
557.85	100.366
558.19	100.065
558.54	99.973
558.88	100.122
559.23	100.276
559.57	100.144
559.92	100.224
560.26	100.617
560.61	99.941
560.95	100.083
561.30	100.209
561.64	100.292
561.99	100.283
562.33	100.384
562.68	100.336
563.02	100.618
563.37	100.436
563.71	100.237
564.06	100.503
564.40	100.539
564.75	100.374
565.09	100.022
565.44	100.392
565.78	100.379
566.13	99.996
566.47	100.244
566.82	100.104
567.16	100.478
567.50	100.173
567.85	100.231
568.19	99.992
568.54	100.214
568.88	100.249
569.23	100.232
569.57	100.159
569.91	100.246
570.26	99.976
570.60	100.008
570.95	100.270
571.29	100.122
571.63	100.147
571.98	99.967
572.32	100.398
572.67	100.129
573.01	100.372
573.35	100.485
573.70	100.398
574.04	100.193
574.38	100.184
574.73	100.385
575.07	100.385
575.41	100.219
575.76	100.270
576.10	100.273
576.45	100.296
576.79	99.991
577.13	100.368
577.48	100.246
577.82	100.023
578.16	100.113
578.50	100.284
578.85	100.419
579.19	100.172
579.53	100.236
579.88	100.375
580.22	100.288
580.56	100.041
580.91	100.591
581.25	100.343
581.59	100.405
581.93	100.482
582.28	100.458
582.62	100.599
582.96	100.407
583.30	100.480
583.65	100.402
583.99	100.213
584.33	100.298
584.67	100.278
585.02	100.111
585.36	100.193
585.70	100.172
586.04	100.508
586.39	100.232
586.73	100.455
587.07	100.198
587.41	100.387
587.76	100.211
588.10	100.349
588.44	100.119
588.78	100.467
589.12	100.423
589.46	100.546
589.81	100.340
590.15	100.397
590.49	100.405
590.83	100.305
591.17	100.318
591.52	100.311
591.86	100.452
592.20	100.451
592.54	100.564
592.88	100.400
593.22	100.348
593.56	100.246
593.91	100.350
594.25	100.220
594.59	100.485
594.93	100.325
595.27	100.710
595.61	100.626
595.95	100.088
596.29	100.402
596.63	100.368
596.98	100.588
597.32	100.386
597.66	100.661
598.00	100.441
598.34	100.401
598.68	100.470
599.02	100.447
599.36	100.312
599.70	100.484
600.04	100.259
600.38	100.505
600.72	100.596
601.06	100.645
601.41	100.408
601.75	100.559
602.09	100.530
602.43	100.615
602.77	100.396
603.11	100.269
603.45	100.249
603.79	100.363
604.13	100.260
604.47	100.474
604.81	100.198
605.15	100.145
605.49	100.211
605.83	100.405
606.17	100.360
606.51	100.475
606.85	100.340
607.19	100.260
607.53	100.410
607.87	100.294
608.21	100.362
608.55	100.451
608.88	100.397
609.22	100.443
609.56	100.487
609.90	100.375
610.24	100.281
610.58	100.173
610.92	100.388
611.26	100.421
611.60	100.214
611.94	100.274
612.28	100.559
612.62	100.486
612.96	100.344
613.30	100.367
613.63	100.329
613.97	100.417
614.31	100.578
614.65	100.210
614.99	100.470
615.33	100.476
615.67	100.405
616.01	100.682
616.34	100.618
616.68	100.454
617.02	100.300
617.36	100.395
617.70	100.495
618.04	100.687
618.38	100.310
618.71	100.486
619.05	100.379
619.39	100.711
619.73	100.490
620.07	100.538
620.40	100.506
620.74	100.638
621.08	100.549
621.42	100.501
621.76	100.504
622.10	100.561
622.43	100.350
622.77	100.545
623.11	100.399
623.45	100.578
623.78	100.474
624.12	100.393
624.46	100.401
624.80	100.400
625.13	100.527
625.47	100.536
625.81	100.545
626.15	100.583
626.48	100.716
626.82	100.466
627.16	100.445
627.50	100.467
627.83	100.553
628.17	100.466
628.51	100.466
628.84	100.599
629.18	100.441
629.52	100.605
629.86	100.591
630.19	100.713
630.53	100.622
630.87	100.455
631.20	100.584
631.54	100.666
631.88	100.517
632.21	100.481
632.55	100.673
632.89	100.444
633.22	100.389
633.56	100.712
633.90	100.657
634.23	100.505
634.57	100.430
634.91	100.469
635.24	100.554
635.58	100.353
635.91	100.366
636.25	100.524
636.59	100.334
636.92	100.553
637.26	100.318
637.59	100.333
